LabVIEW Measurement	
Writer_Version	2
Reader_Version	2
Separator	Tab
Decimal_Separator	.
Multi_Headings	Yes
X_Columns	No
Time_Pref	Relative
Operator	scien
Date	2025/09/01
Time	21:42:04.4867119789123535156
***End_of_Header***	
	
Channels	2		
Samples	100	100	
Date	1903/12/31	1903/12/31	
Time	19:00:00	19:00:00	
X_Dimension	Time	Time	
X0	0.0000000000000000E+0	0.0000000000000000E+0	
Delta_X	1.000000	1.000000	
***End_of_Header***			
X_Value	Untitled	Untitled 1	Comment
	-50.023918	-3.133112E-5
	-49.616829	-3.088266E-5
	-49.213078	-3.044297E-5
	-48.812725	-2.990982E-5
	-48.409039	-2.944466E-5
	-48.001820	-2.887745E-5
	-47.598053	-2.820779E-5
	-47.194462	-2.756505E-5
	-46.794071	-2.686927E-5
	-46.390755	-2.601996E-5
	-45.983356	-2.518332E-5
	-45.579681	-2.420190E-5
	-45.175781	-2.317815E-5
	-44.768833	-2.197604E-5
	-44.371723	-2.069116E-5
	-43.964569	-1.917707E-5
	-43.560719	-1.747850E-5
	-43.156788	-1.571226E-5
	-42.749844	-1.362829E-5
	-42.349480	-1.139995E-5
	-41.947247	-8.925103E-6
	-41.542667	-6.108116E-6
	-41.135166	-3.061931E-6
	-40.730270	3.495372E-7
	-40.329578	3.895478E-6
	-39.924484	7.798244E-6
	-39.521820	1.195375E-5
	-39.114567	1.646992E-5
	-38.710701	2.124937E-5
	-38.309654	2.632246E-5
	-37.905842	3.163372E-5
	-37.498081	3.725103E-5
	-37.094074	4.301602E-5
	-36.689728	4.918086E-5
	-36.288872	5.547789E-5
	-35.884613	6.213535E-5
	-35.477310	6.914511E-5
	-35.072929	7.650939E-5
	-34.668842	8.425807E-5
	-34.261185	9.252272E-5
	-33.860477	0.000101
	-33.457497	0.000110
	-33.053699	0.000121
	-32.646255	0.000132
	-32.242443	0.000144
	-31.841354	0.000161
	-31.437401	0.000187
	-31.034008	0.000240
	-30.626421	0.000329
	-30.222099	0.000462
	-29.820097	0.000607
	-29.416983	0.000781
	-29.013107	0.000984
	-28.606863	0.001225
	-28.202406	0.001448
	-27.801302	0.001623
	-27.396950	0.001763
	-26.989614	0.001881
	-26.585377	0.001987
	-26.181408	0.002088
	-25.780508	0.002182
	-25.377077	0.002269
	-24.969534	0.002352
	-24.566044	0.002432
	-24.162054	0.002506
	-23.755074	0.002582
	-23.354557	0.002652
	-22.950731	0.002723
	-22.546919	0.002793
	-22.139910	0.002864
	-21.735867	0.002936
	-21.335852	0.003004
	-20.932039	0.003074
	-20.528250	0.003144
	-20.120934	0.003214
	-19.717037	0.003281
	-19.317081	0.003349
	-18.913067	0.003415
	-18.505793	0.003483
	-18.102160	0.003550
	-17.698700	0.003616
	-17.297638	0.003682
	-16.894358	0.003747
	-16.486378	0.003813
	-16.082848	0.003878
	-15.679147	0.003942
	-15.272151	0.004007
	-14.874311	0.004071
	-14.467902	0.004137
	-14.063712	0.004201
	-13.660480	0.004266
	-13.253069	0.004332
	-12.852475	0.004396
	-12.448321	0.004462
	-12.044029	0.004527
	-11.636930	0.004593
	-11.232579	0.004660
	-10.831791	0.004726
	-10.427670	0.004793
	-10.023083	0.004860

