LabVIEW Measurement	
Writer_Version	2
Reader_Version	2
Separator	Tab
Decimal_Separator	.
Multi_Headings	Yes
X_Columns	No
Time_Pref	Relative
Operator	scien
Date	2025/08/24
Time	21:17:11.313289642333984375
***End_of_Header***	
	
Channels	2		
Samples	100	100	
Date	1903/12/31	1903/12/31	
Time	19:00:00	19:00:00	
X_Dimension	Time	Time	
X0	0.0000000000000000E+0	0.0000000000000000E+0	
Delta_X	1.000000	1.000000	
***End_of_Header***			
X_Value	Untitled	Untitled 1	Comment
	-20.002039	-3.709726E-7
	-19.597588	-7.253561E-8
	-19.193920	3.387015E-7
	-18.789539	9.796928E-7
	-18.385794	1.854558E-6
	-17.981783	3.238007E-6
	-17.577894	5.355694E-6
	-17.173336	8.835045E-6
	-16.769840	1.373501E-5
	-16.366032	2.084028E-5
	-15.961886	2.989035E-5
	-15.558125	4.018350E-5
	-15.154248	5.115818E-5
	-14.750149	6.194854E-5
	-14.346428	7.347749E-5
	-13.942543	8.400719E-5
	-13.538547	9.483748E-5
	-13.134666	0.000104
	-12.730744	0.000114
	-12.326197	0.000124
	-11.922310	0.000134
	-11.518415	0.000144
	-11.114174	0.000154
	-10.710200	0.000164
	-10.306213	0.000173
	-9.901918	0.000182
	-9.497848	0.000191
	-9.093952	0.000201
	-8.689962	0.000209
	-8.285688	0.000218
	-7.881729	0.000227
	-7.477139	0.000237
	-7.073196	0.000245
	-6.669319	0.000252
	-6.265036	0.000261
	-5.861177	0.000269
	-5.457205	0.000278
	-5.053238	0.000286
	-4.649126	0.000294
	-4.245245	0.000302
	-3.841248	0.000310
	-3.437005	0.000319
	-3.033107	0.000325
	-2.629146	0.000335
	-2.224565	0.000341
	-1.820635	0.000350
	-1.416382	0.000358
	-1.012339	0.000366
	-0.608298	0.000373
	-0.204350	0.000381
	0.201990	0.000390
	0.606269	0.000398
	1.010352	0.000405
	1.414397	0.000412
	1.818198	0.000420
	2.222581	0.000429
	2.626835	0.000437
	3.031303	0.000445
	3.435143	0.000452
	3.838960	0.000460
	4.242867	0.000468
	4.647235	0.000476
	5.050996	0.000484
	5.454913	0.000493
	5.858872	0.000500
	6.262737	0.000507
	6.667123	0.000516
	7.071177	0.000524
	7.475636	0.000532
	7.879456	0.000542
	8.283503	0.000548
	8.687512	0.000557
	9.091641	0.000566
	9.495627	0.000575
	9.899689	0.000582
	10.303730	0.000590
	10.708080	0.000598
	11.112117	0.000608
	11.515997	0.000617
	11.920004	0.000623
	12.324181	0.000633
	12.728527	0.000642
	13.132830	0.000649
	13.536703	0.000662
	13.940587	0.000668
	14.344179	0.000678
	14.748378	0.000688
	15.152145	0.000697
	15.556102	0.000705
	15.959852	0.000715
	16.364027	0.000725
	16.767839	0.000733
	17.171583	0.000745
	17.576010	0.000753
	17.979916	0.000766
	18.383970	0.000774
	18.787697	0.000782
	19.192030	0.000795
	19.595926	0.000803
	19.999987	0.000812

