LabVIEW Measurement	
Writer_Version	2
Reader_Version	2
Separator	Tab
Decimal_Separator	.
Multi_Headings	Yes
X_Columns	No
Time_Pref	Relative
Operator	scien
Date	2025/08/24
Time	21:17:12.2950258255004882813
***End_of_Header***	
	
Channels	2		
Samples	100	100	
Date	1903/12/31	1903/12/31	
Time	19:00:00	19:00:00	
X_Dimension	Time	Time	
X0	0.0000000000000000E+0	0.0000000000000000E+0	
Delta_X	1.000000	1.000000	
***End_of_Header***			
X_Value	Untitled	Untitled 1	Comment
	10.003855	0.007025
	9.298251	0.006928
	8.589549	0.006832
	7.884196	0.006735
	7.172285	0.006634
	6.466945	0.006533
	5.761709	0.006429
	5.053141	0.006324
	4.347692	0.006217
	3.635761	0.006110
	2.930233	0.006002
	2.221485	0.005891
	1.516300	0.005779
	0.810984	0.005669
	0.102265	0.005553
	-0.626339	0.005431
	-1.334759	0.005312
	-2.039974	0.005194
	-2.745358	0.005073
	-3.457488	0.004947
	-4.162889	0.004817
	-4.871790	0.004682
	-5.576782	0.004540
	-6.285260	0.004393
	-6.990832	0.004242
	-7.696228	0.004088
	-8.408118	0.003923
	-9.113708	0.003743
	-9.822162	0.003531
	-10.527592	0.003288
	-11.233027	0.003006
	-11.944904	0.002658
	-12.647149	0.002160
	-13.358682	0.001107
	-14.063934	1.093766E-5
	-14.774416	-6.745604E-5
	-15.479862	-7.184779E-5
	-16.185247	-7.504220E-5
	-16.897356	-7.780099E-5
	-17.602549	-8.007057E-5
	-18.311064	-8.219398E-5
	-19.016342	-8.403903E-5
	-19.721441	-8.572759E-5
	-20.430216	-8.732633E-5
	-21.135441	-8.870830E-5
	-21.847469	-9.016407E-5
	-22.552372	-9.140675E-5
	-23.257814	-9.256387E-5
	-23.966669	-9.370135E-5
	-24.671659	-9.468247E-5
	-25.383533	-9.571928E-5
	-26.089056	-9.660371E-5
	-26.797550	-9.753413E-5
	-27.503050	-9.841106E-5
	-28.208261	-9.913451E-5
	-28.916687	-9.995665E-5
	-29.622099	-0.000101
	-30.334019	-0.000101
	-31.039042	-0.000102
	-31.744263	-0.000103
	-32.452950	-0.000103
	-33.158360	-0.000104
	-33.866638	-0.000104
	-34.571968	-0.000105
	-35.281391	-0.000105
	-35.986919	-0.000106
	-36.691906	-0.000107
	-37.400726	-0.000107
	-38.105793	-0.000108
	-38.817860	-0.000108
	-39.522697	-0.000109
	-40.227787	-0.000109
	-40.936485	-0.000110
	-41.641811	-0.000111
	-42.350231	-0.000111
	-43.055340	-0.000112
	-43.760429	-0.000112
	-44.472492	-0.000113
	-45.177505	-0.000114
	-45.885906	-0.000115
	-46.591335	-0.000115
	-47.302826	-0.000116
	-48.004501	-0.000117
	-48.709629	-0.000118
	-49.421326	-0.000119
	-50.126839	-0.000120
	-50.835052	-0.000121
	-51.540344	-0.000122
	-52.245522	-0.000123
	-52.957161	-0.000124
	-53.662575	-0.000125
	-54.371136	-0.000127
	-55.076241	-0.000128
	-55.785145	-0.000129
	-56.489944	-0.000131
	-57.195278	-0.000132
	-57.907143	-0.000133
	-58.612221	-0.000135
	-59.321007	-0.000136
	-60.026100	-0.000138

