LabVIEW Measurement	
Writer_Version	2
Reader_Version	2
Separator	Tab
Decimal_Separator	.
Multi_Headings	Yes
X_Columns	No
Time_Pref	Relative
Operator	scien
Date	2025/08/24
Time	21:17:12.2950258255004882813
***End_of_Header***	
	
Channels	2		
Samples	100	100	
Date	1903/12/31	1903/12/31	
Time	19:00:00	19:00:00	
X_Dimension	Time	Time	
X0	0.0000000000000000E+0	0.0000000000000000E+0	
Delta_X	1.000000	1.000000	
***End_of_Header***			
X_Value	Untitled	Untitled 1	Comment
	10.003184	0.002940
	9.496506	0.002909
	8.992978	0.002877
	8.486377	0.002846
	7.982949	0.002815
	7.476485	0.002783
	6.973013	0.002754
	6.466255	0.002724
	5.962926	0.002694
	5.456328	0.002663
	4.953183	0.002634
	4.446404	0.002604
	3.943371	0.002576
	3.436591	0.002545
	2.929705	0.002518
	2.426470	0.002488
	1.919843	0.002461
	1.416484	0.002432
	0.909572	0.002402
	0.406335	0.002377
	-0.119757	0.002348
	-0.626471	0.002320
	-1.129468	0.002293
	-1.636395	0.002267
	-2.139646	0.002238
	-2.646075	0.002212
	-3.149883	0.002185
	-3.656434	0.002159
	-4.163005	0.002133
	-4.666406	0.002106
	-5.173005	0.002079
	-5.676666	0.002053
	-6.182744	0.002026
	-6.686242	0.002002
	-7.193130	0.001974
	-7.696267	0.001948
	-8.203078	0.001921
	-8.706377	0.001894
	-9.213103	0.001867
	-9.716392	0.001840
	-10.223173	0.001813
	-10.729860	0.001784
	-11.233124	0.001757
	-11.739914	0.001729
	-12.243161	0.001703
	-12.749801	0.001673
	-13.252888	0.001645
	-13.759863	0.001615
	-14.263246	0.001587
	-14.769635	0.001557
	-15.279558	0.001529
	-15.782787	0.001498
	-16.289766	0.001468
	-16.793034	0.001441
	-17.299356	0.001409
	-17.806261	0.001380
	-18.309319	0.001348
	-18.816177	0.001320
	-19.319366	0.001290
	-19.825556	0.001260
	-20.328934	0.001231
	-20.835344	0.001198
	-21.338619	0.001168
	-21.845407	0.001139
	-22.348650	0.001108
	-22.855377	0.001080
	-23.358370	0.001045
	-23.865051	0.001015
	-24.367447	0.000984
	-24.873878	0.000951
	-25.380512	0.000919
	-25.883614	0.000887
	-26.390768	0.000853
	-26.894022	0.000821
	-27.400785	0.000786
	-27.903944	0.000752
	-28.410534	0.000714
	-28.913921	0.000677
	-29.421078	0.000633
	-29.923824	0.000588
	-30.430548	0.000535
	-30.933279	0.000471
	-31.439510	0.000390
	-31.946907	0.000276
	-32.450302	0.000172
	-32.956837	9.956655E-5
	-33.458771	6.453992E-5
	-33.965588	5.410800E-5
	-34.469299	4.758708E-5
	-34.976212	4.233878E-5
	-35.479473	3.725044E-5
	-35.985607	3.255327E-5
	-36.489300	2.809937E-5
	-36.996010	2.423279E-5
	-37.499397	2.075833E-5
	-38.006023	1.757641E-5
	-38.508869	1.497667E-5
	-39.015865	1.243324E-5
	-39.522007	1.030928E-5
	-40.024258	8.355742E-6

